X Coordinates:
0,10,10,0,10,10,0,0,3.52708,1.6658,1.17785,2.37786,6.0119,5.70387,6.54927,7.84921,8.52026,7.18626,4.85084,4.06652,5.39624,0.588925,9.26013,9.20404,9.60202,8.48649,6.01513,5.08081,6.78069,1.63785,0.849176,0.424588,3.87973,4.29272,3.39258,2.89359,2.4497,7.46663,7.932,3.06802,9.58743,9.41437,0.679113,0.505577,5.17995,4.61711,4.99398,4.25279,7.36355,7.83646,2.89152,2.50797,1.98953,6.82861,6.27989,7.61292,8.14336,3.41187,3.61662,3.9746,5.73862,5.83267,6.61708,1.37641,0.923254,1.687,8.63445,9.16642,8.45344,3.73424,3.0515,
Volumes:
0.106987,0.123809,0.0608253,0.0731229,0.176025,0.212238,0.168634,0.217726,0.0968474,0.129671,0.18228,0.164442,0.12324,0.105591,0.120156,0.290644,0.236471,0.15311,0.137764,0.21258,0.125858,0.235208,0.282678,0.17073,0.0953264,0.241189,0.341187,0.34723,0.314,0.314354,0.206598,0.138283,0.074094,0.186838,0.120666,0.0810627,0.205524,0.210513,0.181217,0.200958,0.159971,0.554068,0.499451,0.265876,0.298535,0.450682,0.643031,0.403143,0.376951,0.321949,0.657396,0.494223,0.496441,0.429068,0.289318,0.457791,0.279433,0.383137,0.329784,0.431308,0.332494,0.567443,0.612825,0.380565,0.351926,0.647314,0.379604,0.362211,0.490162,0.231881,0.256345,

 Time(s),  sigmaYY(Pa) on vertices
0,-774.943,-774.943,-774.943,-774.943,-774.943,-774.943,-774.943,-774.943,-774.943,-774.943,-774.943,-774.943,-774.943,-774.943,-774.943,-774.943,-774.943,-774.943,-774.943,-774.943,-774.943,-774.943,-774.943,-774.943,-774.943,-774.943,-774.943,-774.943,-774.943,-774.943,-774.943,-774.943,-774.943,-774.943,-774.943,-774.943,-774.943,-774.943,-774.943,-774.943,-774.943,-774.943,-774.943,-774.943,-774.943,-774.943,-774.943,-774.943,-774.943,-774.943,-774.943,-774.943,-774.943,-774.943,-774.943,-774.943,-774.943,-774.943,-774.943,-774.943,-774.943,-774.943,-774.943,-774.943,-774.943,-774.943,-774.943,-774.943,-774.943,-774.943,-774.943,
25,-785.069,-829.178,-830.652,-785.069,-827.825,-828.345,-785.069,-785.069,-785.072,-785.069,-785.069,-785.069,-785.138,-785.115,-785.205,-786.685,-795.202,-785.462,-785.083,-785.078,-785.095,-785.069,-812.317,-803.606,-820.653,-794.806,-785.04,-785.054,-785.083,-785.069,-785.069,-785.069,-785.064,-785.059,-785.066,-785.067,-785.068,-785.329,-787.412,-785.07,-822.2,-814.84,-785.069,-785.069,-785.084,-785.077,-785.054,-785.066,-785.331,-787.446,-785.07,-785.069,-785.069,-785.318,-785.107,-786.06,-788.142,-785.067,-785.072,-785.07,-785.09,-785.046,-785.093,-785.069,-785.069,-785.069,-797.154,-807.897,-794.049,-785.066,-785.068,
50,-788.987,-836.497,-838.304,-788.987,-835.833,-836.356,-788.987,-788.987,-788.989,-788.987,-788.987,-788.987,-789.221,-789.122,-789.694,-794.893,-806.97,-791.536,-789.01,-788.997,-789.052,-788.987,-822.936,-816.034,-830.998,-806.476,-789.171,-788.995,-790.017,-788.987,-788.987,-788.987,-788.982,-788.976,-788.985,-788.986,-788.986,-791.504,-796.56,-788.987,-831.79,-824.996,-788.987,-788.987,-789.038,-789.001,-788.984,-788.985,-791.413,-796.406,-788.987,-788.987,-788.987,-790.586,-789.312,-793.535,-798.154,-788.985,-788.989,-788.988,-789.117,-789.163,-789.891,-788.987,-788.987,-788.987,-808.973,-819.445,-805.503,-788.984,-788.986,
75,-792.088,-841.417,-843.075,-792.089,-840.933,-841.385,-792.089,-792.089,-792.093,-792.087,-792.088,-792.088,-793.022,-792.651,-794.261,-802.139,-815.187,-797.615,-792.199,-792.116,-792.391,-792.088,-829.74,-823.775,-837.022,-814.594,-792.948,-792.277,-794.938,-792.09,-792.089,-792.089,-792.089,-792.104,-792.09,-792.091,-792.09,-797.632,-804.285,-792.088,-837.582,-831.499,-792.089,-792.089,-792.359,-792.165,-792.226,-792.123,-797.435,-804.005,-792.09,-792.089,-792.088,-795.821,-793.359,-800.387,-806.215,-792.091,-792.096,-792.111,-792.688,-792.886,-794.614,-792.088,-792.089,-792.089,-817.043,-826.687,-813.638,-792.093,-792.091,
100,-794.737,-845.261,-846.74,-794.738,-844.855,-845.239,-794.737,-794.737,-794.771,-794.734,-794.735,-794.738,-796.794,-796.073,-798.77,-808.284,-821.458,-803.195,-795.094,-794.85,-795.556,-794.736,-834.836,-829.462,-841.445,-820.796,-796.652,-795.338,-799.674,-794.74,-794.739,-794.738,-794.773,-794.871,-794.755,-794.747,-794.743,-803.237,-810.66,-794.744,-841.895,-836.389,-794.737,-794.738,-795.487,-795.002,-795.226,-794.903,-802.959,-810.317,-794.751,-794.742,-794.737,-800.786,-797.388,-806.344,-812.713,-794.761,-794.781,-794.846,-796.161,-796.511,-799.182,-794.736,-794.738,-794.74,-823.166,-832.053,-819.892,-794.78,-794.751,
125,-797.089,-848.489,-849.82,-797.091,-848.127,-848.459,-797.091,-797.09,-797.207,-797.087,-797.088,-797.105,-800.494,-799.434,-803.065,-813.547,-826.541,-808.201,-797.867,-797.395,-798.655,-797.089,-838.972,-834.027,-845.048,-825.845,-800.275,-798.313,-804.114,-797.1,-797.094,-797.092,-797.23,-797.472,-797.162,-797.124,-797.109,-808.261,-816.035,-797.129,-845.432,-840.377,-797.09,-797.091,-798.545,-797.697,-798.133,-797.517,-807.926,-815.661,-797.144,-797.111,-797.097,-805.379,-801.306,-811.525,-818.113,-797.177,-797.231,-797.383,-799.571,-800.051,-803.498,-797.089,-797.092,-797.101,-828.125,-836.388,-824.993,-797.24,-797.144,
150,-799.232,-851.312,-852.528,-799.234,-850.981,-851.274,-799.233,-799.233,-799.501,-799.237,-799.233,-799.285,-804.066,-802.712,-807.09,-818.135,-830.835,-812.692,-800.577,-799.842,-801.695,-799.233,-842.493,-837.883,-848.145,-830.129,-803.777,-801.228,-808.235,-799.259,-799.241,-799.235,-799.567,-799.995,-799.417,-799.323,-799.28,-812.766,-820.674,-799.343,-848.486,-843.787,-799.234,-799.234,-801.546,-800.316,-800.981,-800.047,-812.393,-820.284,-799.368,-799.291,-799.262,-809.6,-805.051,-816.088,-822.734,-799.442,-799.544,-799.814,-802.892,-803.476,-807.53,-799.235,-799.239,-799.261,-832.319,-840.069,-829.322,-799.577,-799.371,
175,-801.217,-853.848,-854.973,-801.218,-853.54,-853.804,-801.218,-801.217,-801.71,-801.241,-801.224,-801.337,-807.483,-805.883,-810.845,-822.202,-834.572,-816.748,-803.234,-802.23,-804.662,-801.22,-845.588,-841.249,-850.895,-833.869,-807.132,-804.078,-812.053,-801.273,-801.234,-801.22,-801.836,-802.47,-801.581,-801.406,-801.318,-816.835,-824.759,-801.444,-851.203,-846.793,-801.223,-801.219,-804.479,-802.882,-803.77,-802.522,-816.436,-824.362,-801.482,-801.344,-801.29,-813.481,-808.6,-820.159,-826.78,-801.614,-801.775,-802.18,-806.1,-806.765,-811.285,-801.229,-801.233,-801.279,-835.972,-843.296,-833.101,-801.843,-801.494,
200,-803.081,-856.169,-857.22,-803.081,-855.878,-856.12,-803.081,-803.081,-803.86,-803.14,-803.101,-803.3,-810.734,-808.936,-814.348,-825.861,-837.895,-820.441,-805.837,-804.573,-807.542,-803.088,-848.368,-844.256,-853.387,-837.202,-810.333,-806.853,-815.597,-803.183,-803.112,-803.084,-804.061,-804.902,-803.687,-803.412,-803.262,-820.539,-828.414,-803.468,-853.671,-849.502,-803.093,-803.083,-807.33,-805.397,-806.493,-804.951,-820.123,-828.015,-803.52,-803.308,-803.22,-817.064,-811.952,-823.838,-830.389,-803.726,-803.948,-804.497,-809.182,-809.91,-814.784,-803.109,-803.111,-803.193,-839.226,-846.188,-836.467,-804.061,-803.549,
225,-804.851,-858.319,-859.31,-804.849,-858.044,-858.268,-804.849,-804.851,-805.967,-804.961,-804.89,-805.201,-813.824,-811.864,-817.624,-829.191,-840.901,-823.833,-808.379,-806.875,-810.327,-804.865,-850.906,-846.988,-855.682,-840.22,-813.38,-809.547,-818.898,-805.014,-804.901,-804.854,-806.25,-807.291,-805.752,-805.366,-805.138,-823.938,-831.728,-805.437,-855.946,-851.98,-804.872,-804.854,-810.092,-807.858,-809.14,-807.334,-823.511,-831.33,-805.505,-805.209,-805.078,-820.388,-815.118,-827.197,-833.654,-805.792,-806.077,-806.771,-812.136,-812.911,-818.054,-804.905,-804.902,-805.031,-842.171,-848.823,-839.514,-806.243,-805.555,
250,-806.549,-860.333,-861.272,-806.544,-860.071,-860.28,-806.545,-806.548,-808.037,-806.725,-806.614,-807.055,-816.76,-814.671,-820.696,-832.253,-843.653,-826.969,-810.857,-809.134,-813.015,-806.572,-853.251,-849.5,-857.818,-842.987,-816.28,-812.157,-821.985,-806.787,-806.624,-806.552,-808.405,-809.633,-807.784,-807.279,-806.965,-827.081,-834.765,-807.363,-858.066,-854.275,-806.581,-806.553,-812.761,-810.263,-811.71,-809.668,-826.648,-834.37,-807.447,-807.062,-806.884,-823.487,-818.112,-830.291,-836.643,-807.821,-808.167,-809.001,-814.962,-815.774,-821.12,-806.636,-806.627,-806.812,-844.872,-851.252,-842.307,-808.389,-807.524,
275,-808.191,-862.233,-863.128,-808.184,-861.982,-862.179,-808.185,-808.19,-810.071,-808.444,-808.288,-808.872,-819.553,-817.36,-823.588,-835.092,-846.201,-829.89,-813.268,-811.348,-815.607,-808.225,-855.44,-851.835,-859.824,-845.548,-819.043,-814.68,-824.884,-808.516,-808.296,-808.195,-810.525,-811.925,-809.784,-809.16,-808.753,-830.006,-837.575,-809.254,-860.059,-856.42,-808.238,-808.196,-815.336,-812.608,-814.2,-811.951,-829.569,-837.183,-809.354,-808.879,-808.648,-826.39,-820.947,-833.163,-839.406,-809.817,-810.222,-811.187,-817.668,-818.507,-824.005,-808.318,-808.301,-808.548,-847.373,-853.515,-844.891,-810.5,-809.46,
300,-809.792,-864.038,-864.894,-809.78,-863.795,-863.982,-809.782,-809.79,-812.072,-810.131,-809.924,-810.659,-822.213,-819.937,-826.32,-837.742,-848.578,-832.624,-815.611,-813.517,-818.104,-809.837,-857.498,-854.022,-861.721,-847.939,-821.679,-817.12,-827.618,-810.209,-809.929,-809.796,-812.61,-814.164,-811.754,-811.013,-810.51,-832.744,-840.193,-811.114,-861.944,-858.44,-809.854,-809.797,-817.821,-814.892,-816.611,-814.181,-832.305,-839.806,-811.229,-810.664,-810.38,-829.122,-823.64,-835.847,-841.98,-811.78,-812.24,-813.329,-820.259,-821.119,-826.729,-809.963,-809.937,-810.25,-849.709,-855.639,-847.303,-812.574,-811.367,
325,-811.36,-865.759,-866.582,-811.345,-865.526,-865.703,-811.348,-811.358,-814.039,-811.79,-811.53,-812.42,-824.753,-822.411,-828.908,-840.231,-850.811,-835.198,-817.888,-815.639,-820.512,-811.419,-859.445,-856.085,-863.524,-850.185,-824.198,-819.478,-830.204,-811.874,-811.531,-811.364,-814.656,-816.35,-813.693,-812.84,-812.241,-835.321,-842.648,-812.946,-863.737,-860.353,-811.439,-811.367,-820.219,-817.117,-818.946,-816.357,-834.881,-842.266,-813.075,-812.423,-812.086,-831.703,-826.203,-838.37,-844.394,-813.712,-814.223,-815.425,-822.743,-823.618,-829.31,-811.58,-811.543,-811.924,-851.906,-857.646,-849.568,-814.611,-813.246,
350,-812.904,-867.409,-868.202,-812.885,-867.183,-867.352,-812.889,-812.902,-815.972,-813.428,-813.114,-814.157,-827.182,-824.787,-831.37,-842.581,-852.921,-837.632,-820.098,-817.714,-822.834,-812.977,-861.296,-858.041,-865.247,-852.308,-826.61,-821.758,-832.661,-813.517,-813.111,-812.909,-816.664,-818.482,-815.603,-814.642,-813.949,-837.756,-844.964,-814.75,-865.452,-862.175,-813,-812.912,-822.533,-819.282,-821.206,-818.48,-837.317,-844.587,-814.895,-814.159,-813.768,-834.152,-828.648,-840.753,-846.67,-815.613,-816.171,-817.476,-825.127,-826.014,-831.764,-813.173,-813.126,-813.576,-853.984,-859.551,-851.708,-816.609,-815.097,
375,-814.43,-868.996,-869.762,-814.407,-868.776,-868.938,-814.411,-814.427,-817.872,-815.047,-814.68,-815.873,-829.509,-827.073,-833.717,-844.809,-854.925,-839.942,-822.246,-819.743,-825.076,-814.517,-863.065,-859.904,-866.899,-854.325,-828.923,-823.965,-835,-815.14,-814.672,-814.435,-818.633,-820.561,-817.481,-816.42,-815.637,-840.067,-847.158,-816.53,-867.096,-863.917,-814.544,-814.44,-824.768,-821.389,-823.395,-820.55,-839.63,-846.786,-816.687,-815.873,-815.431,-836.482,-830.986,-843.013,-848.828,-817.482,-818.084,-819.481,-827.42,-828.314,-834.104,-814.749,-814.69,-815.208,-855.958,-861.369,-853.74,-818.569,-816.921,
400,-815.943,-870.526,-871.268,-815.916,-870.313,-870.469,-815.92,-815.939,-819.738,-816.651,-816.231,-817.569,-831.744,-829.275,-835.961,-846.93,-856.836,-842.142,-824.332,-821.725,-827.243,-816.042,-864.761,-861.686,-868.489,-856.247,-831.146,-826.101,-837.236,-816.747,-816.219,-815.947,-820.563,-822.589,-819.329,-818.175,-817.306,-842.268,-849.245,-818.284,-868.679,-865.588,-816.073,-815.953,-826.93,-823.44,-825.517,-822.57,-841.833,-848.879,-818.454,-817.566,-817.075,-838.706,-833.228,-845.165,-850.88,-819.321,-819.961,-821.443,-829.628,-830.527,-836.341,-816.309,-816.24,-816.823,-857.841,-863.109,-855.677,-820.491,-818.718,
425,-817.444,-872.006,-872.726,-817.413,-871.798,-871.949,-817.419,-817.44,-821.572,-818.241,-817.77,-819.245,-833.893,-831.4,-838.112,-848.956,-858.665,-844.245,-826.361,-823.663,-829.34,-817.557,-866.393,-863.396,-870.023,-858.087,-833.286,-828.172,-839.377,-818.339,-817.754,-817.449,-822.455,-824.568,-821.147,-819.907,-818.957,-844.371,-851.239,-820.015,-870.208,-867.197,-817.591,-817.456,-829.022,-825.438,-827.576,-824.541,-843.939,-850.878,-820.196,-819.24,-818.703,-840.836,-835.381,-847.22,-852.841,-821.13,-821.805,-823.362,-831.757,-832.659,-838.486,-817.858,-817.778,-818.422,-859.645,-864.782,-857.53,-822.375,-820.488,
450,-818.937,-873.44,-874.141,-818.903,-873.238,-873.383,-818.909,-818.933,-823.373,-819.818,-819.3,-820.902,-835.965,-833.454,-840.178,-850.898,-860.421,-846.261,-828.335,-825.558,-831.37,-819.062,-867.967,-865.042,-871.508,-859.853,-835.35,-830.181,-841.434,-819.917,-819.279,-818.943,-824.31,-826.499,-822.934,-821.616,-820.591,-846.387,-853.148,-821.722,-871.686,-868.75,-819.1,-818.95,-831.05,-827.386,-829.575,-826.464,-845.958,-852.792,-821.914,-820.896,-820.316,-842.88,-837.454,-849.19,-854.72,-822.909,-823.616,-825.24,-833.814,-834.717,-840.546,-819.396,-819.306,-820.008,-861.378,-866.393,-859.309,-824.223,-822.233,
475,-820.423,-874.834,-875.516,-820.385,-874.636,-874.777,-820.392,-820.419,-825.144,-821.382,-820.82,-822.541,-837.965,-835.44,-842.168,-852.763,-862.111,-848.198,-830.257,-827.412,-833.339,-820.56,-869.489,-866.631,-872.947,-861.554,-837.343,-832.132,-843.413,-821.483,-820.794,-820.429,-826.129,-828.384,-824.693,-823.303,-822.208,-848.323,-854.983,-823.407,-873.121,-870.253,-820.601,-820.437,-833.016,-829.284,-831.518,-828.342,-847.898,-854.632,-823.609,-822.533,-821.913,-844.846,-839.453,-851.083,-856.526,-824.659,-825.394,-827.078,-835.803,-836.706,-842.53,-820.924,-820.825,-821.581,-863.047,-867.95,-861.02,-826.035,-823.952,
500,-821.903,-876.189,-876.855,-821.862,-875.996,-876.133,-821.87,-821.898,-826.884,-822.936,-822.332,-824.163,-839.898,-837.366,-844.088,-854.56,-863.743,-850.063,-832.129,-829.226,-835.251,-822.051,-870.963,-868.167,-874.345,-863.195,-839.272,-834.029,-845.321,-823.037,-822.302,-821.909,-827.912,-830.225,-826.423,-824.969,-823.81,-850.188,-856.75,-825.07,-874.514,-871.711,-822.095,-821.918,-834.926,-831.137,-833.408,-830.178,-849.766,-856.403,-825.28,-824.153,-823.497,-846.741,-841.384,-852.906,-858.265,-826.381,-827.141,-828.878,-837.73,-838.631,-844.444,-822.443,-822.335,-823.142,-864.658,-869.457,-862.672,-827.813,-825.647,
525,-823.378,-877.51,-878.16,-823.334,-877.321,-877.454,-823.342,-823.372,-828.595,-824.478,-823.835,-825.767,-841.771,-839.234,-845.943,-856.295,-865.321,-851.863,-833.956,-831.002,-837.109,-823.536,-872.395,-869.657,-875.705,-864.782,-841.141,-835.875,-847.166,-824.58,-823.802,-823.383,-829.662,-832.025,-828.125,-826.613,-825.397,-851.988,-858.455,-826.712,-875.87,-873.126,-823.582,-823.393,-836.783,-832.946,-835.249,-831.972,-851.57,-858.114,-826.93,-825.755,-825.066,-848.572,-843.252,-854.666,-859.945,-828.076,-828.858,-830.642,-839.599,-840.498,-846.294,-823.954,-823.838,-824.69,-866.218,-870.919,-864.269,-829.557,-827.317,
550,-824.847,-878.8,-879.435,-824.8,-878.614,-878.744,-824.808,-824.841,-830.278,-826.009,-825.332,-827.355,-843.588,-841.049,-847.74,-857.973,-866.851,-853.605,-835.738,-832.742,-838.917,-825.014,-873.788,-871.104,-877.031,-866.32,-842.955,-837.674,-848.951,-826.111,-825.294,-824.853,-831.38,-833.786,-829.801,-828.237,-826.968,-853.728,-860.105,-828.333,-877.193,-874.504,-825.063,-824.863,-838.591,-834.715,-837.043,-833.728,-853.314,-859.768,-828.558,-827.341,-826.622,-850.345,-845.063,-856.368,-861.57,-829.745,-830.546,-832.371,-841.414,-842.311,-848.085,-825.457,-825.333,-826.227,-867.73,-872.34,-865.817,-831.27,-828.964,
575,-826.311,-880.059,-880.681,-826.261,-879.877,-880.004,-826.27,-826.305,-831.934,-827.529,-826.82,-828.926,-845.353,-842.814,-849.483,-859.6,-868.336,-855.292,-837.48,-834.448,-840.679,-826.486,-875.144,-872.511,-878.325,-867.813,-844.718,-839.428,-850.682,-827.632,-826.779,-826.317,-833.067,-835.51,-831.45,-829.84,-828.525,-855.415,-861.704,-829.934,-878.483,-875.846,-826.537,-826.328,-840.352,-836.444,-838.794,-835.448,-855.004,-861.371,-830.165,-828.911,-828.165,-852.062,-846.822,-858.017,-863.146,-831.389,-832.207,-834.067,-843.18,-844.073,-849.822,-826.951,-826.82,-827.752,-869.199,-873.723,-867.319,-832.952,-830.588,
600,-827.769,-881.292,-881.901,-827.717,-881.113,-881.236,-827.727,-827.763,-833.565,-829.039,-828.301,-830.481,-847.069,-844.533,-851.175,-861.178,-869.78,-856.928,-839.183,-836.121,-842.397,-827.953,-876.467,-873.882,-879.59,-869.265,-846.433,-841.14,-852.363,-829.141,-828.257,-827.775,-834.724,-837.199,-833.075,-831.425,-830.067,-857.051,-863.256,-831.516,-879.744,-877.156,-828.005,-827.787,-842.07,-838.137,-840.505,-837.132,-856.644,-862.928,-831.752,-830.465,-829.694,-853.73,-848.531,-859.617,-864.676,-833.008,-833.841,-835.732,-844.899,-845.788,-851.51,-828.437,-828.299,-829.266,-870.628,-875.072,-868.78,-834.606,-832.191,
625,-829.222,-882.498,-883.096,-829.168,-882.323,-882.443,-829.178,-829.215,-835.17,-830.537,-829.774,-832.021,-848.74,-846.21,-852.821,-862.713,-871.187,-858.519,-840.849,-837.764,-844.074,-829.412,-877.759,-875.219,-880.827,-870.68,-848.104,-842.813,-853.998,-830.64,-829.727,-829.228,-836.353,-838.854,-834.676,-832.99,-831.594,-858.641,-864.765,-833.078,-880.978,-878.436,-829.467,-829.24,-843.748,-839.795,-842.176,-838.784,-858.237,-864.441,-833.319,-832.003,-831.21,-855.352,-850.194,-861.173,-866.164,-834.604,-835.449,-837.367,-846.575,-847.46,-853.151,-829.914,-829.771,-830.768,-872.02,-876.388,-870.202,-836.231,-833.772,
650,-830.669,-883.681,-884.267,-830.613,-883.509,-883.627,-830.623,-830.662,-836.751,-832.025,-831.239,-833.545,-850.369,-847.846,-854.424,-864.207,-872.559,-860.068,-842.481,-839.376,-845.713,-830.865,-879.023,-876.525,-882.039,-872.059,-849.733,-844.45,-855.589,-832.127,-831.19,-830.675,-837.955,-840.478,-836.254,-834.536,-833.108,-860.189,-866.235,-834.622,-882.187,-879.687,-830.921,-830.687,-845.387,-841.421,-843.812,-840.404,-859.789,-865.914,-834.868,-833.525,-832.714,-856.93,-851.815,-862.688,-867.613,-836.177,-837.034,-838.973,-848.211,-849.091,-854.749,-831.383,-831.235,-832.259,-873.378,-877.674,-871.589,-837.83,-835.332,
675,-832.109,-884.842,-885.417,-832.052,-884.672,-884.787,-832.062,-832.102,-838.31,-833.502,-832.695,-835.053,-851.96,-849.445,-855.987,-865.664,-873.899,-861.577,-844.081,-840.961,-847.316,-832.311,-880.26,-877.802,-883.226,-873.405,-851.324,-846.052,-857.141,-833.604,-832.644,-832.115,-839.531,-842.071,-837.81,-836.065,-834.608,-861.697,-867.668,-836.149,-883.372,-880.913,-832.369,-832.128,-846.991,-843.016,-845.413,-841.995,-861.301,-867.351,-836.398,-835.033,-834.205,-858.47,-853.397,-864.164,-869.026,-837.729,-838.594,-840.552,-849.809,-850.683,-856.308,-832.844,-832.691,-833.739,-874.705,-878.932,-872.942,-839.403,-836.873,
700,-833.543,-885.981,-886.547,-833.484,-885.814,-885.927,-833.495,-833.536,-839.846,-834.969,-834.143,-836.547,-853.513,-851.009,-857.513,-867.086,-875.208,-863.049,-845.65,-842.519,-848.885,-833.75,-881.472,-879.053,-884.391,-874.721,-852.88,-847.621,-858.656,-835.07,-834.09,-833.549,-841.082,-843.637,-839.344,-837.576,-836.093,-863.168,-869.066,-837.657,-884.534,-882.115,-833.809,-833.563,-848.561,-844.581,-846.983,-843.557,-862.776,-868.753,-837.91,-836.526,-835.683,-859.972,-854.942,-865.605,-870.406,-839.259,-840.132,-842.106,-851.371,-852.24,-857.83,-834.295,-834.138,-835.207,-876.002,-880.164,-874.265,-840.952,-838.394,
