X Coordinates:
5.41247,5.76828,8.96036,9.30718,8.54177,7.20553,7.65076,6.69203,1.1363,1.40899,0.730264,6.11861,6.37302,8.09558,2.59606,3.04066,2.32883,3.64428,4.2528,4.58686,0,0.365132,9.75833,10,1.67385,4.95263,9.51701,2.06611,

 Time(s),  sigmaYY(Pa) on vertices
0,-774.943,-774.943,-774.943,-774.943,-774.943,-774.943,-774.943,-774.943,-774.943,-774.943,-774.943,-774.943,-774.943,-774.943,-774.943,-774.943,-774.943,-774.943,-774.943,-774.943,-774.943,-774.943,-774.943,-774.943,-774.943,-774.943,-774.943,-774.943,
25,-784.991,-784.991,-798.222,-808.552,-792.333,-785.164,-785.76,-785,-784.99,-784.99,-784.99,-784.993,-784.996,-787.584,-784.99,-784.99,-784.99,-784.99,-784.99,-784.99,-784.99,-784.99,-829.874,-836.013,-784.99,-784.99,-819.231,-784.99,
50,-789.038,-789.09,-811.814,-821.471,-804.392,-790.882,-793.314,-789.686,-789.011,-789.011,-789.011,-789.198,-789.367,-797.602,-789.011,-789.011,-789.011,-789.011,-789.012,-789.014,-789.011,-789.011,-837.654,-842.003,-789.011,-789.022,-829.843,-789.011,
75,-792.357,-792.617,-820.313,-829.007,-812.944,-796.648,-800.361,-794.425,-792.138,-792.138,-792.138,-793.021,-793.548,-805.733,-792.138,-792.139,-792.138,-792.144,-792.154,-792.186,-792.138,-792.138,-842.562,-846.123,-792.138,-792.252,-836.091,-792.138,
100,-795.481,-796.059,-826.509,-834.433,-819.45,-802.039,-806.475,-799.104,-794.796,-794.796,-794.796,-796.821,-797.72,-812.277,-794.8,-794.809,-794.798,-794.84,-794.887,-795.01,-794.796,-794.796,-846.344,-849.439,-794.797,-795.202,-840.688,-794.797,
125,-798.548,-799.468,-831.423,-838.743,-824.705,-806.939,-811.768,-803.543,-797.154,-797.156,-797.154,-800.559,-801.77,-817.71,-797.176,-797.208,-797.167,-797.296,-797.418,-797.69,-797.153,-797.153,-849.506,-852.284,-797.158,-798.052,-844.412,-797.161,
150,-801.568,-802.807,-835.532,-842.367,-829.13,-811.372,-816.408,-807.685,-799.301,-799.306,-799.298,-804.173,-805.628,-822.355,-799.364,-799.441,-799.341,-799.618,-799.847,-800.303,-799.297,-799.297,-852.269,-854.814,-799.313,-800.85,-847.592,-799.324,
175,-804.526,-806.042,-839.088,-845.526,-832.972,-815.4,-820.533,-811.531,-801.291,-801.304,-801.285,-807.628,-809.269,-826.42,-801.429,-801.569,-801.381,-801.859,-802.216,-802.871,-801.279,-801.28,-854.752,-857.116,-801.321,-803.599,-850.401,-801.346,
200,-807.403,-809.154,-842.244,-848.347,-836.381,-819.083,-824.248,-815.103,-803.164,-803.189,-803.15,-810.915,-812.695,-830.043,-803.409,-803.628,-803.328,-804.047,-804.542,-805.395,-803.139,-803.142,-857.026,-859.244,-803.222,-806.29,-852.938,-803.267,
225,-810.192,-812.137,-845.095,-850.914,-839.458,-822.473,-827.632,-818.431,-804.949,-804.991,-804.924,-814.035,-815.919,-833.32,-805.329,-805.638,-805.209,-806.194,-806.829,-807.871,-804.903,-804.908,-859.136,-861.234,-805.044,-808.916,-855.266,-805.116,
250,-812.885,-814.992,-847.707,-853.279,-842.272,-825.616,-830.743,-821.543,-806.666,-806.729,-806.628,-816.997,-818.959,-836.319,-807.206,-807.61,-807.041,-808.304,-809.075,-810.292,-806.594,-806.602,-861.114,-863.11,-806.807,-811.469,-857.429,-806.912,
275,-815.484,-817.723,-850.126,-855.482,-844.872,-828.546,-833.627,-824.465,-808.331,-808.42,-808.277,-819.811,-821.83,-839.09,-809.049,-809.55,-808.835,-810.378,-811.279,-812.656,-808.229,-808.24,-862.982,-864.89,-808.525,-813.948,-859.457,-808.666,
300,-817.989,-820.337,-852.385,-857.55,-847.295,-831.292,-836.318,-827.219,-809.958,-810.075,-809.886,-822.489,-824.551,-841.672,-810.862,-811.461,-810.598,-812.417,-813.439,-814.96,-809.82,-809.835,-864.758,-866.59,-810.21,-816.351,-861.371,-810.389,
325,-820.405,-822.842,-854.51,-859.504,-849.57,-833.879,-838.844,-829.824,-811.555,-811.701,-811.464,-825.044,-827.136,-844.092,-812.65,-813.343,-812.337,-814.42,-815.553,-817.203,-811.38,-811.399,-866.454,-868.218,-811.867,-818.681,-863.19,-812.086,
350,-822.735,-825.245,-856.521,-861.361,-851.717,-836.327,-841.229,-832.297,-813.13,-813.305,-813.018,-827.485,-829.598,-846.374,-814.414,-815.197,-814.052,-816.386,-817.622,-819.387,-812.915,-812.939,-868.08,-869.785,-813.502,-820.938,-864.926,-813.76,
375,-824.985,-827.555,-858.434,-863.134,-853.754,-838.652,-843.489,-834.652,-814.686,-814.891,-814.555,-829.822,-831.949,-848.537,-816.155,-817.023,-815.747,-818.317,-819.645,-821.511,-814.432,-814.461,-869.646,-871.297,-815.119,-823.126,-866.59,-815.416,
400,-827.159,-829.777,-860.26,-864.833,-855.695,-840.868,-845.64,-836.901,-816.228,-816.462,-816.078,-832.065,-834.2,-850.595,-817.875,-818.822,-817.423,-820.211,-821.623,-823.579,-815.935,-815.969,-871.157,-872.759,-816.719,-825.249,-868.19,-817.054,
425,-829.262,-831.919,-862.01,-866.467,-857.552,-842.986,-847.694,-839.054,-817.759,-818.02,-817.589,-834.222,-836.36,-852.56,-819.575,-820.595,-819.08,-822.07,-823.558,-825.592,-817.429,-817.466,-872.619,-874.177,-818.306,-827.308,-869.733,-818.676,
450,-831.299,-833.987,-863.693,-868.042,-859.333,-845.016,-849.662,-841.122,-819.28,-819.567,-819.092,-836.299,-838.437,-854.444,-821.254,-822.341,-820.721,-823.895,-825.45,-827.553,-818.914,-818.956,-874.037,-875.555,-819.88,-829.309,-871.226,-820.283,
475,-833.275,-835.986,-865.315,-869.565,-861.047,-846.967,-851.552,-843.112,-820.792,-821.104,-820.588,-838.303,-840.439,-856.253,-822.913,-824.062,-822.344,-825.686,-827.301,-829.465,-820.393,-820.439,-875.416,-876.897,-821.442,-831.254,-872.673,-821.876,
500,-835.192,-837.921,-866.883,-871.041,-862.701,-848.847,-853.371,-845.03,-822.297,-822.632,-822.077,-840.241,-842.371,-857.997,-824.553,-825.758,-823.951,-827.445,-829.112,-831.329,-821.866,-821.916,-876.758,-878.204,-822.992,-833.146,-874.078,-823.455,
525,-837.055,-839.798,-868.401,-872.473,-864.299,-850.662,-855.128,-846.883,-823.794,-824.15,-823.559,-842.116,-844.239,-859.68,-826.174,-827.429,-825.543,-829.172,-830.887,-833.149,-823.334,-823.387,-878.066,-879.48,-824.532,-834.99,-875.444,-825.021,
550,-838.868,-841.62,-869.874,-873.866,-865.848,-852.417,-856.826,-848.676,-825.284,-825.659,-825.036,-843.935,-846.049,-861.309,-827.777,-829.077,-827.119,-830.87,-832.625,-834.926,-824.798,-824.854,-879.343,-880.728,-826.061,-836.787,-876.776,-826.574,
575,-840.634,-843.391,-871.306,-875.222,-867.351,-854.117,-858.471,-850.415,-826.767,-827.159,-826.507,-845.701,-847.806,-862.888,-829.361,-830.702,-828.679,-832.538,-834.33,-836.664,-826.256,-826.315,-880.591,-881.949,-827.579,-838.54,-878.075,-828.113,
600,-842.356,-845.115,-872.7,-876.545,-868.813,-855.767,-860.068,-852.102,-828.242,-828.651,-827.971,-847.418,-849.512,-864.421,-830.929,-832.305,-830.225,-834.18,-836.002,-838.364,-827.71,-827.772,-881.813,-883.144,-829.086,-840.253,-879.345,-829.64,
625,-844.037,-846.796,-874.059,-877.838,-870.236,-857.371,-861.62,-853.743,-829.711,-830.133,-829.43,-849.09,-851.172,-865.912,-832.479,-833.886,-831.756,-835.794,-837.644,-840.029,-829.158,-829.222,-883.01,-884.317,-830.583,-841.927,-880.587,-831.154,
650,-845.679,-848.435,-875.386,-879.101,-871.623,-858.932,-863.131,-855.341,-831.171,-831.607,-830.881,-850.719,-852.789,-867.364,-834.012,-835.447,-833.272,-837.384,-839.256,-841.66,-830.601,-830.668,-884.183,-885.467,-832.069,-843.565,-881.803,-832.656,
675,-847.285,-850.036,-876.682,-880.337,-872.977,-860.453,-864.603,-856.899,-832.624,-833.071,-832.326,-852.31,-854.366,-868.78,-835.529,-836.987,-834.774,-838.949,-840.84,-843.26,-832.038,-832.106,-885.335,-886.597,-833.544,-845.169,-882.994,-834.145,
700,-848.857,-851.601,-877.951,-881.549,-874.3,-861.937,-866.04,-858.419,-834.069,-834.525,-833.764,-853.863,-855.906,-870.163,-837.03,-838.509,-836.262,-840.491,-842.398,-844.829,-833.469,-833.539,-886.466,-887.707,-835.008,-846.741,-884.163,-835.621,
725,-850.397,-853.132,-879.193,-882.737,-875.595,-863.387,-867.443,-859.904,-835.505,-835.971,-835.194,-855.382,-857.411,-871.514,-838.515,-840.011,-837.736,-842.011,-843.93,-846.37,-834.893,-834.965,-887.577,-888.799,-836.462,-848.283,-885.31,-837.085,
750,-851.906,-854.632,-880.411,-883.903,-876.862,-864.805,-868.816,-861.356,-836.933,-837.406,-836.617,-856.869,-858.883,-872.836,-839.984,-841.496,-839.196,-843.509,-845.438,-847.884,-836.311,-836.383,-888.67,-889.874,-837.905,-849.796,-886.438,-838.537,
775,-853.388,-856.102,-881.605,-885.048,-878.105,-866.193,-870.16,-862.778,-838.352,-838.831,-838.031,-858.325,-860.325,-874.131,-841.439,-842.962,-840.643,-844.987,-846.924,-849.373,-837.72,-837.794,-889.746,-890.932,-839.337,-851.283,-887.546,-839.977,
800,-854.842,-857.544,-882.778,-886.173,-879.324,-867.552,-871.477,-864.17,-839.762,-840.247,-839.437,-859.753,-861.738,-875.401,-842.879,-844.412,-842.076,-846.445,-848.387,-850.837,-839.122,-839.197,-890.805,-891.974,-840.757,-852.743,-888.636,-841.404,
825,-856.271,-858.96,-883.93,-887.28,-880.521,-868.885,-872.768,-865.536,-841.163,-841.652,-840.835,-861.154,-863.125,-876.646,-844.304,-845.845,-843.496,-847.884,-849.829,-852.278,-840.516,-840.592,-891.848,-893.001,-842.167,-854.18,-889.709,-842.819,
850,-857.676,-860.35,-885.063,-888.369,-881.696,-870.193,-874.035,-866.877,-842.554,-843.047,-842.223,-862.53,-864.485,-877.869,-845.716,-847.262,-844.903,-849.305,-851.251,-853.697,-841.902,-841.978,-892.876,-894.014,-843.566,-855.593,-890.766,-844.222,
875,-859.058,-861.718,-886.177,-889.442,-882.852,-871.478,-875.279,-868.193,-843.935,-844.432,-843.602,-863.882,-865.822,-879.07,-847.113,-848.663,-846.297,-850.708,-852.654,-855.095,-843.279,-843.356,-893.89,-895.012,-844.953,-856.984,-891.808,-845.613,
900,-860.419,-863.062,-887.274,-890.498,-883.989,-872.74,-876.502,-869.487,-845.307,-845.806,-844.973,-865.211,-867.136,-880.252,-848.496,-850.049,-847.678,-852.094,-854.038,-856.473,-844.647,-844.724,-894.89,-895.998,-846.33,-858.354,-892.834,-846.992,
925,-861.758,-864.385,-888.354,-891.539,-885.108,-873.981,-877.705,-870.759,-846.669,-847.17,-846.333,-866.519,-868.428,-881.413,-849.866,-851.42,-849.047,-853.463,-855.404,-857.832,-846.006,-846.084,-895.876,-896.97,-847.695,-859.704,-893.846,-848.359,
950,-863.078,-865.688,-889.419,-892.566,-886.21,-875.202,-878.888,-872.011,-848.021,-848.523,-847.684,-867.806,-869.7,-882.557,-851.223,-852.776,-850.403,-854.816,-856.752,-859.172,-847.356,-847.434,-896.85,-897.931,-849.049,-861.035,-894.845,-849.715,
975,-864.379,-866.972,-890.468,-893.578,-887.295,-876.404,-880.054,-873.243,-849.363,-849.865,-849.025,-869.073,-870.952,-883.683,-852.566,-854.118,-851.746,-856.154,-858.084,-860.494,-848.697,-848.775,-897.812,-898.879,-850.392,-862.348,-895.83,-851.058,
1000,-865.661,-868.237,-891.503,-894.577,-888.365,-877.588,-881.201,-874.456,-850.694,-851.197,-850.357,-870.322,-872.185,-884.793,-853.897,-855.446,-853.078,-857.476,-859.4,-861.799,-850.028,-850.106,-898.761,-899.816,-851.724,-863.643,-896.803,-852.39,
1025,-866.926,-869.484,-892.523,-895.563,-889.421,-878.755,-882.332,-875.652,-852.016,-852.518,-851.678,-871.553,-873.401,-885.886,-855.215,-856.76,-854.397,-858.784,-860.7,-863.088,-851.349,-851.427,-899.699,-900.742,-853.045,-864.92,-897.763,-853.71,
1050,-868.175,-870.714,-893.53,-896.537,-890.461,-879.904,-883.447,-876.831,-853.327,-853.829,-852.989,-872.767,-874.599,-886.965,-856.521,-858.061,-855.704,-860.077,-861.985,-864.361,-852.661,-852.739,-900.626,-901.658,-854.355,-866.182,-898.712,-855.019,
1075,-869.407,-871.928,-894.525,-897.498,-891.489,-881.039,-884.546,-877.994,-854.627,-855.129,-854.291,-873.964,-875.781,-888.028,-857.814,-859.349,-857,-861.356,-863.256,-865.618,-853.963,-854.04,-901.543,-902.562,-855.653,-867.428,-899.65,-856.316,
1100,-870.624,-873.126,-895.507,-898.448,-892.503,-882.157,-885.631,-879.141,-855.918,-856.418,-855.582,-875.146,-876.948,-889.078,-859.095,-860.624,-858.283,-862.622,-864.512,-866.86,-855.254,-855.332,-902.448,-903.457,-856.941,-868.658,-900.576,-857.602,
1125,-871.826,-874.309,-896.477,-899.387,-893.504,-883.261,-886.702,-880.273,-857.198,-857.696,-856.862,-876.312,-878.099,-890.115,-860.364,-861.886,-859.555,-863.874,-865.754,-868.088,-856.536,-856.613,-903.344,-904.342,-858.218,-869.874,-901.492,-858.876,
1150,-873.014,-875.477,-897.435,-900.315,-894.493,-884.351,-887.759,-881.39,-858.467,-858.964,-858.133,-877.464,-879.236,-891.138,-861.621,-863.136,-860.816,-865.114,-866.983,-869.302,-857.808,-857.885,-904.23,-905.217,-859.484,-871.076,-902.397,-860.14,
1175,-874.187,-876.632,-898.382,-901.232,-895.47,-885.428,-888.803,-882.494,-859.726,-860.221,-859.393,-878.602,-880.358,-892.149,-862.866,-864.374,-862.065,-866.34,-868.198,-870.503,-859.069,-859.146,-905.106,-906.082,-860.739,-872.263,-903.293,-861.392,
1200,-875.347,-877.772,-899.318,-902.139,-896.435,-886.491,-889.834,-883.584,-860.975,-861.467,-860.643,-879.726,-881.467,-893.147,-864.1,-865.599,-863.303,-867.554,-869.4,-871.689,-860.321,-860.397,-905.972,-906.939,-861.983,-873.437,-904.178,-862.633,
1225,-876.493,-878.899,-900.243,-903.035,-897.39,-887.541,-890.853,-884.662,-862.213,-862.703,-861.883,-880.837,-882.563,-894.134,-865.322,-866.813,-864.529,-868.756,-870.59,-872.864,-861.562,-861.638,-906.83,-907.787,-863.216,-874.599,-905.054,-863.863,
1250,-877.627,-880.014,-901.159,-903.923,-898.333,-888.58,-891.86,-885.726,-863.441,-863.929,-863.113,-881.935,-883.646,-895.11,-866.533,-868.015,-865.745,-869.946,-871.768,-874.025,-862.793,-862.869,-907.679,-908.625,-864.439,-875.747,-905.921,-865.082,
1275,-878.748,-881.116,-902.064,-904.8,-899.266,-889.606,-892.856,-886.778,-864.659,-865.144,-864.332,-883.021,-884.717,-896.074,-867.733,-869.206,-866.949,-871.124,-872.933,-875.174,-864.014,-864.089,-908.518,-909.456,-865.651,-876.883,-906.778,-866.291,
1300,-879.857,-882.205,-902.959,-905.668,-900.189,-890.62,-893.84,-887.819,-865.866,-866.348,-865.541,-884.094,-885.776,-897.028,-868.922,-870.385,-868.143,-872.29,-874.087,-876.311,-865.225,-865.3,-909.35,-910.277,-866.852,-878.007,-907.627,-867.488,
1325,-880.955,-883.283,-903.845,-906.528,-901.101,-891.624,-894.814,-888.848,-867.063,-867.542,-866.74,-885.156,-886.823,-897.971,-870.1,-871.554,-869.326,-873.445,-875.229,-877.436,-866.426,-866.5,-910.172,-911.091,-868.043,-879.119,-908.467,-868.675,
1350,-882.04,-884.349,-904.721,-907.378,-902.004,-892.616,-895.776,-889.865,-868.25,-868.726,-867.929,-886.206,-887.858,-898.904,-871.267,-872.711,-870.498,-874.589,-876.359,-878.55,-867.616,-867.69,-910.987,-911.897,-869.224,-880.219,-909.298,-869.852,
1375,-883.114,-885.404,-905.589,-908.219,-902.898,-893.598,-896.729,-890.872,-869.426,-869.9,-869.108,-887.245,-888.883,-899.827,-872.423,-873.857,-871.66,-875.721,-877.479,-879.653,-868.797,-868.871,-911.793,-912.694,-870.394,-881.308,-910.121,-871.018,
1400,-884.177,-886.448,-906.447,-909.052,-903.782,-894.569,-897.671,-891.868,-870.593,-871.063,-870.276,-888.273,-889.896,-900.74,-873.569,-874.993,-872.811,-876.843,-878.587,-880.744,-869.968,-870.041,-912.592,-913.484,-871.554,-882.386,-910.935,-872.174,
1425,-885.23,-887.481,-907.297,-909.877,-904.657,-895.53,-898.603,-892.853,-871.749,-872.216,-871.435,-889.29,-890.899,-901.644,-874.705,-876.118,-873.952,-877.954,-879.685,-881.825,-871.128,-871.201,-913.382,-914.266,-872.704,-883.453,-911.742,-873.319,
1450,-886.271,-888.504,-908.138,-910.694,-905.523,-896.481,-899.526,-893.829,-872.896,-873.359,-872.583,-890.297,-891.892,-902.538,-875.83,-877.232,-875.083,-879.055,-880.772,-882.895,-872.279,-872.351,-914.165,-915.04,-873.844,-884.51,-912.541,-874.454,
1475,-887.303,-889.516,-908.97,-911.502,-906.38,-897.422,-900.439,-894.794,-874.032,-874.492,-873.722,-891.293,-892.874,-903.424,-876.945,-878.336,-876.203,-880.145,-881.848,-883.954,-873.42,-873.491,-914.941,-915.807,-874.973,-885.556,-913.331,-875.579,
1500,-888.323,-890.518,-909.795,-912.303,-907.229,-898.353,-901.343,-895.749,-875.159,-875.615,-874.851,-892.279,-893.847,-904.3,-878.05,-879.431,-877.314,-881.224,-882.915,-885.003,-874.551,-874.622,-915.708,-916.567,-876.093,-886.591,-914.115,-876.695,
1525,-889.334,-891.509,-910.611,-913.095,-908.069,-899.276,-902.238,-896.695,-876.275,-876.729,-875.97,-893.256,-894.809,-905.167,-879.144,-880.514,-878.414,-882.294,-883.971,-886.042,-875.672,-875.743,-916.469,-917.319,-877.202,-887.617,-914.89,-877.8,
1550,-890.335,-892.492,-911.419,-913.88,-908.901,-900.188,-903.124,-897.631,-877.382,-877.832,-877.079,-894.223,-895.762,-906.026,-880.229,-881.588,-879.505,-883.354,-885.017,-887.071,-876.784,-876.854,-917.222,-918.065,-878.302,-888.632,-915.658,-878.895,
1575,-891.326,-893.464,-912.22,-914.658,-909.725,-901.092,-904.001,-898.558,-878.479,-878.926,-878.179,-895.18,-896.706,-906.877,-881.304,-882.653,-880.585,-884.404,-886.053,-888.09,-877.885,-877.955,-917.968,-918.803,-879.392,-889.638,-916.419,-879.98,
1600,-892.308,-894.427,-913.013,-915.428,-910.541,-901.987,-904.87,-899.476,-879.567,-880.01,-879.268,-896.128,-897.64,-907.719,-882.369,-883.707,-881.656,-885.444,-887.079,-889.099,-878.978,-879.047,-918.708,-919.534,-880.473,-890.634,-917.173,-881.056,
1625,-893.28,-895.381,-913.798,-916.191,-911.349,-902.874,-905.73,-900.385,-880.645,-881.084,-880.349,-897.067,-898.566,-908.553,-883.425,-884.752,-882.718,-886.474,-888.096,-890.099,-880.06,-880.129,-919.44,-920.259,-881.544,-891.621,-917.919,-882.122,
1650,-894.243,-896.325,-914.575,-916.946,-912.149,-903.751,-906.581,-901.285,-881.713,-882.149,-881.42,-897.996,-899.482,-909.379,-884.471,-885.787,-883.769,-887.495,-889.103,-891.089,-881.133,-881.201,-920.165,-920.976,-882.605,-892.598,-918.659,-883.179,
1675,-895.197,-897.261,-915.346,-917.694,-912.942,-904.62,-907.425,-902.176,-882.773,-883.205,-882.481,-898.917,-900.39,-910.197,-885.508,-886.813,-884.812,-888.506,-890.101,-892.07,-882.197,-882.264,-920.884,-921.687,-883.657,-893.566,-919.391,-884.226,
1700,-896.141,-898.187,-916.109,-918.436,-913.727,-905.481,-908.26,-903.059,-883.822,-884.251,-883.533,-899.829,-901.288,-911.007,-886.535,-887.829,-885.845,-889.508,-891.09,-893.042,-883.252,-883.318,-921.595,-922.392,-884.699,-894.525,-920.117,-885.264,
1725,-897.077,-899.105,-916.864,-919.17,-914.504,-906.334,-909.088,-903.934,-884.863,-885.288,-884.576,-900.732,-902.179,-911.809,-887.553,-888.836,-886.869,-890.501,-892.069,-894.004,-884.297,-884.363,-922.301,-923.09,-885.733,-895.475,-920.836,-886.293,
1750,-898.004,-900.014,-917.613,-919.898,-915.275,-907.178,-909.907,-904.8,-885.894,-886.316,-885.61,-901.627,-903.06,-912.604,-888.562,-889.834,-887.883,-891.485,-893.04,-894.958,-885.333,-885.398,-923,-923.781,-886.757,-896.416,-921.548,-887.312,
1775,-898.922,-900.915,-918.355,-920.618,-916.038,-908.015,-910.719,-905.658,-886.916,-887.334,-886.634,-902.513,-903.934,-913.392,-889.562,-890.823,-888.889,-892.46,-894.001,-895.903,-886.359,-886.424,-923.692,-924.466,-887.771,-897.348,-922.254,-888.322,
1800,-899.832,-901.807,-919.089,-921.332,-916.794,-908.844,-911.524,-906.507,-887.929,-888.344,-887.649,-903.391,-904.799,-914.172,-890.552,-891.803,-889.885,-893.426,-894.954,-896.839,-887.377,-887.442,-924.378,-925.145,-888.777,-898.271,-922.953,-889.323,
1825,-900.733,-902.691,-919.817,-922.04,-917.542,-909.664,-912.32,-907.349,-888.933,-889.344,-888.656,-904.261,-905.656,-914.944,-891.534,-892.774,-890.872,-894.383,-895.898,-897.767,-888.386,-888.45,-925.057,-925.818,-889.774,-899.186,-923.645,-890.316,
1850,-901.626,-903.567,-920.539,-922.741,-918.284,-910.478,-913.109,-908.183,-889.928,-890.336,-889.653,-905.123,-906.506,-915.71,-892.507,-893.737,-891.851,-895.332,-896.833,-898.686,-889.385,-889.449,-925.731,-926.484,-890.762,-900.093,-924.332,-891.299,
1875,-902.511,-904.434,-921.253,-923.435,-919.019,-911.283,-913.891,-909.01,-890.914,-891.319,-890.642,-905.976,-907.347,-916.468,-893.471,-894.69,-892.821,-896.271,-897.76,-899.596,-890.376,-890.439,-926.398,-927.145,-891.741,-900.991,-925.012,-892.274,
1900,-903.388,-905.294,-921.961,-924.123,-919.748,-912.081,-914.666,-909.828,-891.892,-892.293,-891.622,-906.822,-908.18,-917.22,-894.427,-895.635,-893.782,-897.203,-898.678,-900.499,-891.358,-891.421,-927.059,-927.799,-892.712,-901.881,-925.685,-893.239,
