X Coordinates:
9.8,10,9.6,9.4,9.2,9,8.8,8.6,8.4,8.2,8,7.8,7.6,7.4,7.2,7,6.8,6.6,6.4,6.2,6,5.8,5.6,5.4,5.2,5,4.8,4.6,4.4,4.2,4,3.8,3.6,3.4,3.2,3,2.8,2.6,2.4,2.2,2,1.8,1.6,1.4,1.2,1,0.8,0.6,0.4,0.2,0,

 Time(s),  sigmaYY(Pa) on vertices
0,-774.943,-774.943,-774.943,-774.943,-774.943,-774.943,-774.943,-774.943,-774.943,-774.943,-774.943,-774.943,-774.943,-774.943,-774.943,-774.943,-774.943,-774.943,-774.943,-774.943,-774.943,-774.943,-774.943,-774.943,-774.943,-774.943,-774.943,-774.943,-774.943,-774.943,-774.943,-774.943,-774.943,-774.943,-774.943,-774.943,-774.943,-774.943,-774.943,-774.943,-774.943,-774.943,-774.943,-774.943,-774.943,-774.943,-774.943,-774.943,-774.943,-774.943,-774.943,
25,-832.004,-837.307,-823.055,-814.852,-806.286,-800.477,-795.992,-791.877,-790.051,-787.639,-786.557,-785.722,-785.256,-784.987,-784.835,-784.753,-784.714,-784.698,-784.691,-784.689,-784.687,-784.687,-784.687,-784.687,-784.687,-784.687,-784.687,-784.688,-784.688,-784.688,-784.688,-784.688,-784.688,-784.688,-784.688,-784.688,-784.688,-784.688,-784.688,-784.688,-784.688,-784.688,-784.688,-784.688,-784.688,-784.688,-784.688,-784.688,-784.688,-784.688,-784.688,
50,-839.103,-842.944,-832.514,-826.211,-819.151,-813.882,-809.402,-804.642,-802.012,-798.218,-796.001,-793.978,-792.534,-791.453,-790.619,-789.997,-789.569,-789.276,-789.103,-788.983,-788.892,-788.851,-788.816,-788.802,-788.788,-788.78,-788.776,-788.775,-788.773,-788.773,-788.773,-788.773,-788.773,-788.773,-788.773,-788.773,-788.773,-788.773,-788.773,-788.773,-788.773,-788.773,-788.773,-788.773,-788.773,-788.773,-788.773,-788.773,-788.773,-788.773,-788.773,
75,-843.707,-846.88,-838.234,-832.922,-826.827,-822.129,-818.01,-813.409,-810.682,-806.605,-803.988,-801.449,-799.488,-797.878,-796.503,-795.364,-794.475,-793.773,-793.306,-792.937,-792.609,-792.433,-792.264,-792.182,-792.092,-792.03,-791.994,-791.972,-791.955,-791.945,-791.939,-791.935,-791.933,-791.931,-791.93,-791.93,-791.93,-791.929,-791.929,-791.929,-791.929,-791.929,-791.929,-791.929,-791.929,-791.929,-791.929,-791.929,-791.929,-791.929,-791.929,
100,-847.307,-850.077,-842.517,-837.833,-832.392,-828.13,-824.338,-819.992,-817.326,-813.265,-810.531,-807.792,-805.591,-803.7,-802,-800.518,-799.283,-798.239,-797.5,-796.878,-796.28,-795.93,-795.57,-795.378,-795.157,-794.989,-794.878,-794.806,-794.741,-794.697,-794.67,-794.65,-794.635,-794.624,-794.618,-794.614,-794.61,-794.608,-794.607,-794.606,-794.606,-794.605,-794.605,-794.605,-794.605,-794.605,-794.605,-794.605,-794.605,-794.605,-794.605,
125,-850.348,-852.841,-846.029,-841.788,-836.825,-832.9,-829.376,-825.275,-822.707,-818.75,-816.008,-813.209,-810.904,-808.868,-806.982,-805.287,-803.817,-802.522,-801.572,-800.741,-799.902,-799.387,-798.832,-798.521,-798.147,-797.848,-797.634,-797.489,-797.349,-797.247,-797.18,-797.126,-797.083,-797.051,-797.028,-797.014,-797.002,-796.993,-796.986,-796.982,-796.979,-796.977,-796.976,-796.975,-796.974,-796.974,-796.973,-796.973,-796.973,-796.973,-796.973,
150,-853.026,-855.313,-849.058,-845.149,-840.555,-836.896,-833.593,-829.709,-827.244,-823.416,-820.711,-817.913,-815.573,-813.467,-811.477,-809.652,-808.027,-806.555,-805.448,-804.457,-803.422,-802.765,-802.037,-801.612,-801.092,-800.658,-800.331,-800.103,-799.873,-799.696,-799.574,-799.473,-799.388,-799.321,-799.272,-799.237,-799.208,-799.185,-799.168,-799.155,-799.146,-799.14,-799.135,-799.131,-799.129,-799.127,-799.126,-799.125,-799.125,-799.125,-799.124,
175,-855.444,-857.571,-851.75,-848.104,-843.803,-840.363,-837.243,-833.549,-831.182,-827.484,-824.835,-822.068,-819.729,-817.596,-815.551,-813.648,-811.921,-810.325,-809.105,-807.993,-806.804,-806.033,-805.157,-804.633,-803.98,-803.419,-802.983,-802.67,-802.346,-802.088,-801.903,-801.745,-801.609,-801.497,-801.411,-801.348,-801.294,-801.25,-801.215,-801.188,-801.169,-801.154,-801.142,-801.133,-801.127,-801.122,-801.118,-801.116,-801.115,-801.114,-801.114,
200,-857.666,-859.665,-854.195,-850.763,-846.703,-843.445,-840.481,-836.952,-834.674,-831.101,-828.514,-825.794,-823.475,-821.338,-819.268,-817.321,-815.528,-813.847,-812.544,-811.342,-810.034,-809.171,-808.174,-807.565,-806.797,-806.123,-805.585,-805.193,-804.778,-804.436,-804.186,-803.968,-803.775,-803.612,-803.482,-803.386,-803.3,-803.228,-803.17,-803.123,-803.088,-803.06,-803.038,-803.02,-803.007,-802.997,-802.989,-802.985,-802.981,-802.979,-802.978,
225,-859.734,-861.626,-856.447,-853.194,-849.337,-846.234,-843.404,-840.02,-837.823,-834.366,-831.844,-829.176,-826.886,-824.761,-822.685,-820.715,-818.881,-817.142,-815.78,-814.511,-813.111,-812.174,-811.08,-810.399,-809.534,-808.761,-808.132,-807.668,-807.167,-806.745,-806.43,-806.152,-805.9,-805.684,-805.506,-805.372,-805.249,-805.146,-805.058,-804.987,-804.932,-804.888,-804.851,-804.821,-804.799,-804.781,-804.767,-804.759,-804.751,-804.748,-804.747,
250,-861.677,-863.478,-858.547,-855.445,-851.762,-848.792,-846.079,-842.824,-840.701,-837.351,-834.891,-832.278,-830.023,-827.917,-825.846,-823.869,-822.011,-820.233,-818.829,-817.511,-816.04,-815.045,-813.871,-813.132,-812.184,-811.327,-810.617,-810.088,-809.509,-809.013,-808.636,-808.3,-807.99,-807.72,-807.493,-807.319,-807.157,-807.019,-806.899,-806.8,-806.722,-806.658,-806.602,-806.558,-806.525,-806.496,-806.474,-806.46,-806.449,-806.443,-806.441,
275,-863.516,-865.239,-860.52,-857.549,-854.018,-851.164,-848.554,-845.413,-843.357,-840.106,-837.706,-835.147,-832.93,-830.849,-828.791,-826.815,-824.945,-823.142,-821.709,-820.354,-818.83,-817.79,-816.551,-815.763,-814.746,-813.817,-813.037,-812.451,-811.801,-811.237,-810.803,-810.411,-810.046,-809.723,-809.448,-809.233,-809.032,-808.856,-808.702,-808.572,-808.469,-808.383,-808.307,-808.246,-808.199,-808.159,-808.126,-808.107,-808.09,-808.082,-808.079,
300,-865.266,-866.921,-862.387,-859.532,-856.133,-853.383,-850.864,-847.825,-845.831,-842.671,-840.327,-837.821,-835.643,-833.588,-831.549,-829.581,-827.708,-825.89,-824.437,-823.056,-821.49,-820.414,-819.123,-818.296,-817.222,-816.23,-815.389,-814.753,-814.042,-813.416,-812.929,-812.486,-812.069,-811.696,-811.373,-811.118,-810.877,-810.664,-810.475,-810.314,-810.184,-810.074,-809.977,-809.897,-809.835,-809.781,-809.738,-809.711,-809.688,-809.677,-809.673,
325,-866.939,-868.534,-864.165,-861.411,-858.13,-855.472,-853.034,-850.089,-848.15,-845.074,-842.784,-840.33,-838.189,-836.163,-834.144,-832.189,-830.318,-828.493,-827.027,-825.628,-824.031,-822.928,-821.595,-820.735,-819.613,-818.569,-817.676,-816.996,-816.229,-815.547,-815.013,-814.523,-814.057,-813.637,-813.269,-812.976,-812.696,-812.447,-812.223,-812.03,-811.873,-811.739,-811.618,-811.519,-811.441,-811.373,-811.318,-811.284,-811.254,-811.24,-811.235,
350,-868.546,-870.087,-865.864,-863.201,-860.026,-857.451,-855.087,-852.225,-850.338,-847.34,-845.1,-842.695,-840.591,-838.595,-836.599,-834.659,-832.795,-830.968,-829.495,-828.083,-826.463,-825.338,-823.972,-823.085,-821.922,-820.835,-819.896,-819.178,-818.363,-817.632,-817.054,-816.521,-816.011,-815.547,-815.136,-814.807,-814.49,-814.206,-813.948,-813.723,-813.539,-813.381,-813.238,-813.118,-813.025,-812.942,-812.875,-812.833,-812.796,-812.778,-812.773,
375,-870.094,-871.587,-867.496,-864.914,-861.834,-859.334,-857.037,-854.253,-852.413,-849.486,-847.294,-844.935,-842.867,-840.9,-838.928,-837.006,-835.151,-833.327,-831.85,-830.431,-828.794,-827.652,-826.26,-825.351,-824.155,-823.03,-822.053,-821.302,-820.445,-819.669,-819.053,-818.481,-817.931,-817.426,-816.976,-816.612,-816.26,-815.943,-815.652,-815.397,-815.187,-815.005,-814.839,-814.7,-814.591,-814.493,-814.413,-814.364,-814.32,-814.298,-814.292,
400,-871.589,-873.038,-869.066,-866.559,-863.565,-861.133,-858.898,-856.184,-854.388,-851.528,-849.381,-847.066,-845.033,-843.095,-841.147,-839.243,-837.401,-835.582,-834.105,-832.682,-831.034,-829.879,-828.466,-827.538,-826.316,-825.159,-824.149,-823.37,-822.475,-821.661,-821.009,-820.403,-819.815,-819.274,-818.787,-818.392,-818.007,-817.658,-817.337,-817.053,-816.817,-816.613,-816.425,-816.267,-816.142,-816.03,-815.938,-815.881,-815.83,-815.805,-815.797,
425,-873.037,-874.447,-870.583,-868.143,-865.229,-862.859,-860.68,-858.031,-856.276,-853.478,-851.373,-849.1,-847.101,-845.191,-843.267,-841.383,-839.554,-837.743,-836.269,-834.844,-833.188,-832.024,-830.595,-829.653,-828.408,-827.225,-826.186,-825.383,-824.455,-823.607,-822.924,-822.287,-821.666,-821.091,-820.571,-820.146,-819.732,-819.353,-819.003,-818.692,-818.433,-818.206,-817.998,-817.821,-817.681,-817.555,-817.451,-817.387,-817.329,-817.301,-817.292,
450,-874.442,-875.816,-872.051,-869.673,-866.831,-864.519,-862.392,-859.804,-858.086,-855.346,-853.281,-851.048,-849.082,-847.199,-845.299,-843.434,-841.62,-839.819,-838.349,-836.925,-835.265,-834.095,-832.653,-831.7,-830.436,-829.231,-828.168,-827.343,-826.388,-825.509,-824.8,-824.134,-823.484,-822.878,-822.328,-821.877,-821.434,-821.029,-820.652,-820.315,-820.033,-819.786,-819.558,-819.364,-819.21,-819.071,-818.956,-818.884,-818.82,-818.789,-818.779,
475,-875.809,-877.149,-873.475,-871.154,-868.38,-866.121,-864.041,-861.509,-859.827,-857.141,-855.114,-852.919,-850.983,-849.127,-847.251,-845.407,-843.608,-841.817,-840.353,-838.932,-837.271,-836.096,-834.645,-833.683,-832.404,-831.181,-830.097,-829.255,-828.275,-827.37,-826.636,-825.946,-825.269,-824.636,-824.058,-823.583,-823.115,-822.685,-822.283,-821.923,-821.62,-821.354,-821.108,-820.897,-820.73,-820.579,-820.453,-820.374,-820.304,-820.27,-820.26,
500,-877.139,-878.448,-874.86,-872.591,-869.879,-867.67,-865.634,-863.155,-861.505,-858.871,-856.879,-854.721,-852.814,-850.984,-849.131,-847.307,-845.523,-843.745,-842.288,-840.871,-839.21,-838.033,-836.576,-835.606,-834.316,-833.078,-831.977,-831.119,-830.118,-829.19,-828.435,-827.723,-827.023,-826.365,-825.763,-825.265,-824.775,-824.322,-823.897,-823.516,-823.194,-822.91,-822.647,-822.421,-822.242,-822.079,-821.943,-821.858,-821.783,-821.746,-821.734,
525,-878.437,-879.718,-876.208,-873.988,-871.333,-869.17,-867.176,-864.746,-863.127,-860.541,-858.583,-856.459,-854.581,-852.776,-850.945,-849.141,-847.374,-845.608,-844.159,-842.747,-841.089,-839.911,-838.45,-837.475,-836.176,-834.926,-833.81,-832.939,-831.92,-830.972,-830.199,-829.468,-828.746,-828.067,-827.442,-826.925,-826.414,-825.94,-825.495,-825.094,-824.755,-824.455,-824.176,-823.937,-823.746,-823.572,-823.427,-823.337,-823.256,-823.216,-823.204,
550,-879.705,-880.959,-877.522,-875.348,-872.747,-870.627,-868.672,-866.287,-864.698,-862.157,-860.231,-858.14,-856.289,-854.508,-852.7,-850.915,-849.164,-847.411,-845.971,-844.566,-842.912,-841.735,-840.27,-839.292,-837.986,-836.726,-835.599,-834.717,-833.683,-832.717,-831.928,-831.18,-830.44,-829.742,-829.098,-828.563,-828.033,-827.541,-827.077,-826.658,-826.303,-825.989,-825.695,-825.443,-825.242,-825.058,-824.905,-824.809,-824.723,-824.682,-824.669,
575,-880.945,-882.174,-878.805,-876.674,-874.123,-872.043,-870.125,-867.783,-866.222,-863.723,-861.828,-859.768,-857.944,-856.186,-854.399,-852.634,-850.899,-849.16,-847.729,-846.331,-844.682,-843.507,-842.042,-841.061,-839.751,-838.483,-837.346,-836.455,-835.408,-834.428,-833.625,-832.862,-832.106,-831.391,-830.729,-830.179,-829.632,-829.123,-828.643,-828.208,-827.839,-827.511,-827.205,-826.942,-826.73,-826.538,-826.377,-826.277,-826.186,-826.142,-826.129,
600,-882.159,-883.364,-880.059,-877.968,-875.465,-873.422,-871.539,-869.238,-867.702,-865.245,-863.378,-861.348,-859.549,-857.814,-856.048,-854.302,-852.584,-850.858,-849.437,-848.047,-846.404,-845.231,-843.768,-842.786,-841.472,-840.199,-839.054,-838.156,-837.099,-836.106,-835.29,-834.515,-833.745,-833.015,-832.338,-831.774,-831.212,-830.689,-830.194,-829.745,-829.363,-829.023,-828.705,-828.431,-828.211,-828.011,-827.843,-827.738,-827.644,-827.598,-827.583,
625,-883.348,-884.531,-881.286,-879.233,-876.774,-874.768,-872.916,-870.654,-869.143,-866.724,-864.885,-862.884,-861.109,-859.396,-857.651,-855.923,-854.221,-852.51,-851.098,-849.716,-848.081,-846.912,-845.45,-844.468,-843.153,-841.876,-840.725,-839.821,-838.755,-837.752,-836.926,-836.141,-835.358,-834.616,-833.925,-833.348,-832.774,-832.238,-831.729,-831.267,-830.874,-830.524,-830.195,-829.912,-829.684,-829.476,-829.303,-829.194,-829.096,-829.048,-829.033,
650,-884.514,-885.677,-882.489,-880.471,-878.054,-876.081,-874.261,-872.035,-870.548,-868.166,-866.353,-864.379,-862.628,-860.935,-859.21,-857.501,-855.815,-854.118,-852.717,-851.344,-849.716,-848.551,-847.093,-846.112,-844.796,-843.516,-842.361,-841.453,-840.38,-839.368,-838.534,-837.739,-836.947,-836.193,-835.491,-834.903,-834.318,-833.77,-833.25,-832.777,-832.373,-832.013,-831.676,-831.384,-831.149,-830.935,-830.756,-830.643,-830.542,-830.492,-830.477,
675,-885.659,-886.802,-883.667,-881.683,-879.306,-877.366,-875.574,-873.383,-871.918,-869.571,-867.784,-865.837,-864.107,-862.435,-860.73,-859.038,-857.369,-855.686,-854.295,-852.931,-851.312,-850.152,-848.698,-847.718,-846.403,-845.123,-843.965,-843.054,-841.975,-840.956,-840.115,-839.313,-838.511,-837.748,-837.036,-836.439,-835.844,-835.286,-834.756,-834.273,-833.86,-833.492,-833.146,-832.847,-832.606,-832.386,-832.202,-832.086,-831.982,-831.931,-831.915,
700,-886.784,-887.908,-884.824,-882.872,-880.533,-878.623,-876.859,-874.701,-873.257,-870.944,-869.18,-867.259,-865.551,-863.899,-862.213,-860.539,-858.885,-857.216,-855.836,-854.481,-852.872,-851.717,-850.268,-849.291,-847.977,-846.697,-845.537,-844.624,-843.541,-842.517,-841.67,-840.862,-840.053,-839.282,-838.561,-837.957,-837.353,-836.786,-836.247,-835.755,-835.335,-834.959,-834.606,-834.301,-834.055,-833.829,-833.641,-833.522,-833.415,-833.363,-833.347,
725,-887.889,-888.996,-885.96,-884.039,-881.735,-879.854,-878.116,-875.99,-874.566,-872.285,-870.545,-868.648,-866.962,-865.329,-863.661,-862.004,-860.366,-858.712,-857.342,-855.997,-854.397,-853.248,-851.805,-850.83,-849.52,-848.241,-847.08,-846.166,-845.081,-844.052,-843.201,-842.388,-841.573,-840.795,-840.067,-839.456,-838.845,-838.271,-837.724,-837.225,-836.798,-836.416,-836.056,-835.745,-835.494,-835.265,-835.072,-834.951,-834.842,-834.789,-834.772,
750,-888.977,-890.067,-887.077,-885.184,-882.915,-881.061,-879.349,-877.252,-875.848,-873.598,-871.881,-870.007,-868.341,-866.726,-865.077,-863.437,-861.814,-860.174,-858.816,-857.48,-855.89,-854.747,-853.311,-852.34,-851.033,-849.756,-848.596,-847.681,-846.594,-845.563,-844.709,-843.891,-843.072,-842.289,-841.555,-840.938,-840.321,-839.741,-839.188,-838.682,-838.249,-837.861,-837.496,-837.18,-836.925,-836.691,-836.496,-836.372,-836.261,-836.207,-836.191,
775,-890.047,-891.121,-888.175,-886.31,-884.073,-882.246,-880.557,-878.49,-877.105,-874.884,-873.188,-871.338,-869.691,-868.094,-866.463,-864.84,-863.232,-861.606,-860.259,-858.933,-857.353,-856.217,-854.788,-853.82,-852.518,-851.243,-850.085,-849.171,-848.083,-847.05,-846.194,-845.373,-844.55,-843.763,-843.025,-842.403,-841.781,-841.196,-840.637,-840.126,-839.688,-839.295,-838.926,-838.605,-838.347,-838.11,-837.911,-837.786,-837.673,-837.618,-837.601,
800,-891.101,-892.16,-889.256,-887.416,-885.211,-883.409,-881.744,-879.704,-878.337,-876.144,-874.469,-872.641,-871.013,-869.435,-867.82,-866.214,-864.621,-863.01,-861.673,-860.357,-858.788,-857.659,-856.237,-855.273,-853.976,-852.706,-851.549,-850.636,-849.549,-848.515,-847.657,-846.835,-846.009,-845.219,-844.477,-843.852,-843.225,-842.636,-842.072,-841.557,-841.114,-840.718,-840.345,-840.021,-839.759,-839.519,-839.318,-839.191,-839.077,-839.022,-839.004,
825,-892.14,-893.184,-890.319,-888.505,-886.33,-884.552,-882.909,-880.895,-879.546,-877.381,-875.726,-873.92,-872.31,-870.749,-869.151,-867.561,-865.983,-864.386,-863.06,-861.754,-860.196,-859.074,-857.66,-856.701,-855.409,-854.143,-852.99,-852.078,-850.992,-849.959,-849.1,-848.277,-847.45,-846.657,-845.912,-845.284,-844.654,-844.062,-843.495,-842.975,-842.529,-842.13,-841.753,-841.426,-841.162,-840.92,-840.716,-840.588,-840.473,-840.417,-840.399,
850,-893.163,-894.193,-891.367,-889.578,-887.431,-885.676,-884.054,-882.066,-880.734,-878.595,-876.96,-875.174,-873.583,-872.038,-870.457,-868.882,-867.32,-865.736,-864.421,-863.126,-861.579,-860.464,-859.058,-858.104,-856.818,-855.557,-854.408,-853.499,-852.415,-851.382,-850.524,-849.7,-848.872,-848.078,-847.331,-846.701,-846.069,-845.473,-844.903,-844.381,-843.933,-843.53,-843.151,-842.821,-842.555,-842.311,-842.106,-841.977,-841.86,-841.804,-841.786,
875,-894.172,-895.189,-892.4,-890.634,-888.515,-886.782,-885.181,-883.218,-881.901,-879.788,-878.172,-876.406,-874.832,-873.305,-871.74,-870.18,-868.632,-867.063,-865.759,-864.474,-862.938,-861.83,-860.433,-859.485,-858.205,-856.95,-855.804,-854.898,-853.817,-852.786,-851.928,-851.105,-850.276,-849.482,-848.733,-848.102,-847.469,-846.871,-846.299,-845.774,-845.324,-844.92,-844.538,-844.206,-843.939,-843.693,-843.486,-843.356,-843.239,-843.182,-843.164,
900,-895.168,-896.172,-893.418,-891.674,-889.582,-887.871,-886.289,-884.35,-883.049,-880.961,-879.364,-877.618,-876.061,-874.549,-873,-871.456,-869.922,-868.366,-867.073,-865.798,-864.274,-863.174,-861.786,-860.843,-859.57,-858.321,-857.18,-856.277,-855.199,-854.17,-853.314,-852.492,-851.664,-850.87,-850.121,-849.489,-848.854,-848.255,-847.682,-847.156,-846.703,-846.298,-845.914,-845.581,-845.312,-845.065,-844.857,-844.726,-844.608,-844.551,-844.533,
925,-896.151,-897.142,-894.423,-892.7,-890.634,-888.944,-887.381,-885.465,-884.179,-882.115,-880.535,-878.809,-877.268,-875.772,-874.239,-872.71,-871.19,-869.648,-868.366,-867.102,-865.589,-864.497,-863.118,-862.18,-860.915,-859.672,-858.536,-857.637,-856.562,-855.537,-854.683,-853.862,-853.035,-852.241,-851.493,-850.861,-850.226,-849.626,-849.052,-848.524,-848.071,-847.664,-847.28,-846.945,-846.675,-846.427,-846.219,-846.087,-845.969,-845.911,-845.893,
950,-897.121,-898.1,-895.414,-893.712,-891.67,-890.001,-888.457,-886.563,-885.292,-883.251,-881.689,-879.981,-878.457,-876.976,-875.458,-873.943,-872.438,-870.91,-869.638,-868.384,-866.883,-865.799,-864.429,-863.498,-862.24,-861.004,-859.873,-858.978,-857.908,-856.886,-856.034,-855.215,-854.39,-853.598,-852.85,-852.218,-851.583,-850.984,-850.409,-849.881,-849.427,-849.02,-848.634,-848.299,-848.028,-847.78,-847.571,-847.439,-847.32,-847.262,-847.244,
975,-898.078,-899.046,-896.392,-894.71,-892.693,-891.042,-889.516,-887.644,-886.388,-884.37,-882.824,-881.134,-879.626,-878.161,-876.657,-875.158,-873.666,-872.152,-870.891,-869.647,-868.158,-867.081,-865.721,-864.796,-863.546,-862.317,-861.192,-860.302,-859.236,-858.218,-857.369,-856.553,-855.73,-854.94,-854.193,-853.562,-852.928,-852.329,-851.754,-851.226,-850.772,-850.364,-849.978,-849.643,-849.371,-849.122,-848.913,-848.781,-848.662,-848.604,-848.586,
1000,-899.024,-899.981,-897.357,-895.696,-893.701,-892.07,-890.561,-888.71,-887.468,-885.472,-883.943,-882.271,-880.778,-879.327,-877.839,-876.354,-874.876,-873.375,-872.125,-870.892,-869.414,-868.346,-866.995,-866.076,-864.834,-863.612,-862.494,-861.608,-860.548,-859.534,-858.688,-857.875,-857.055,-856.267,-855.521,-854.892,-854.259,-853.66,-853.086,-852.558,-852.105,-851.697,-851.311,-850.975,-850.704,-850.454,-850.245,-850.113,-849.994,-849.935,-849.917,
1025,-899.959,-900.904,-898.311,-896.668,-894.697,-893.084,-891.592,-889.762,-888.533,-886.559,-885.046,-883.391,-881.914,-880.477,-879.003,-877.532,-876.068,-874.58,-873.341,-872.118,-870.652,-869.592,-868.251,-867.339,-866.105,-864.891,-863.779,-862.898,-861.843,-860.834,-859.992,-859.182,-858.365,-857.579,-856.836,-856.208,-855.576,-854.979,-854.406,-853.879,-853.426,-853.018,-852.633,-852.298,-852.026,-851.777,-851.567,-851.435,-851.316,-851.258,-851.24,
